PE IR       SPECTRUM    SPECTRUM    ASCII       PEDS        1.60        
  -1
BACKGR~1.ASC
80/01/12
21:40:05.00
80/01/12
21:40:05.00
Admin

400.000000
4









502,2.19
LITAO3
MIR
KBR
70765
0.300000
1
4.000000
STRONG
SINGLE
SPECTRUM


DOUBLE

BI DIRECTIONAL
2

0


#HDR
-1
-1
#GR
CM-1
EGY
0.00002384185791015625
0.0
6000.000000
-2.000000
2801
8
57.321929
0.263214
#DATA
6000.000000	14.093780 
5998.000000	14.108276 
5996.000000	14.130401 
5994.000000	14.151000 
5992.000000	14.160919 
5990.000000	14.183044 
5988.000000	14.205932 
5986.000000	14.217376 
5984.000000	14.231872 
5982.000000	14.249420 
5980.000000	14.265441 
5978.000000	14.276123 
5976.000000	14.275360 
5974.000000	14.282989 
5972.000000	14.315032 
5970.000000	14.338684 
5968.000000	14.352416 
5966.000000	14.376068 
5964.000000	14.389801 
5962.000000	14.405059 
5960.000000	14.420318 
5958.000000	14.427185 
5956.000000	14.443969 
5954.000000	14.466094 
5952.000000	14.476776 
5950.000000	14.490509 
5948.000000	14.502716 
5946.000000	14.517974 
5944.000000	14.536285 
5942.000000	14.562988 
5940.000000	14.579772 
5938.000000	14.591979 
5936.000000	14.613342 
5934.000000	14.623260 
5932.000000	14.630126 
5930.000000	14.645385 
5928.000000	14.659118 
5926.000000	14.679718 
5924.000000	14.694976 
5922.000000	14.701843 
5920.000000	14.714813 
5918.000000	14.733886 
5916.000000	14.752960 
5914.000000	14.772796 
5912.000000	14.787292 
5910.000000	14.794158 
5908.000000	14.802551 
5906.000000	14.823150 
5904.000000	14.845275 
5902.000000	14.851379 
5900.000000	14.868164 
5898.000000	14.884948 
5896.000000	14.898681 
5894.000000	14.911651 
5892.000000	14.926147 
5890.000000	14.945983 
5888.000000	14.958190 
5886.000000	14.967346 
5884.000000	14.978027 
5882.000000	14.999389 
5880.000000	15.023803 
5878.000000	15.038299 
5876.000000	15.052032 
5874.000000	15.064239 
5872.000000	15.071868 
5870.000000	15.081787 
5868.000000	15.081787 
5866.000000	15.091705 
5864.000000	15.122985 
5862.000000	15.146636 
5860.000000	15.159606 
5858.000000	15.170288 
5856.000000	15.187835 
5854.000000	15.207672 
5852.000000	15.232086 
5850.000000	15.251922 
5848.000000	15.254974 
5846.000000	15.269470 
5844.000000	15.300750 
5842.000000	15.328979 
5840.000000	15.325927 
5838.000000	15.328979 
5836.000000	15.360260 
5834.000000	15.378570 
5832.000000	15.388488 
5830.000000	15.406036 
5828.000000	15.415954 
5826.000000	15.431213 
5824.000000	15.447998 
5822.000000	15.466308 
5820.000000	15.487670 
5818.000000	15.500640 
5816.000000	15.509033 
5814.000000	15.512084 
5812.000000	15.525054 
5810.000000	15.544891 
5808.000000	15.563964 
5806.000000	15.583801 
5804.000000	15.605926 
5802.000000	15.608978 
5800.000000	15.616607 
5798.000000	15.637969 
5796.000000	15.656280 
5794.000000	15.669250 
5792.000000	15.675354 
5790.000000	15.689849 
5788.000000	15.709686 
5786.000000	15.717315 
5784.000000	15.725708 
5782.000000	15.741729 
5780.000000	15.779113 
5778.000000	15.793609 
5776.000000	15.798950 
5774.000000	15.816497 
5772.000000	15.826416 
5770.000000	15.832519 
5768.000000	15.850067 
5766.000000	15.874481 
5764.000000	15.896606 
5762.000000	15.910339 
5760.000000	15.924072 
5758.000000	15.943908 
5756.000000	15.959930 
5754.000000	15.967559 
5752.000000	15.969848 
5750.000000	15.979003 
5748.000000	15.998840 
5746.000000	16.021728 
5744.000000	16.036224 
5742.000000	16.049957 
5740.000000	16.064453 
5738.000000	16.078948 
5736.000000	16.090393 
5734.000000	16.116333 
5732.000000	16.139984 
5730.000000	16.152954 
5728.000000	16.157531 
5726.000000	16.155242 
5724.000000	16.171264 
5722.000000	16.198730 
5720.000000	16.226196 
5718.000000	16.252899 
5716.000000	16.260528 
5714.000000	16.269683 
5712.000000	16.284942 
5710.000000	16.304016 
5708.000000	16.320037 
5706.000000	16.338348 
5704.000000	16.359710 
5702.000000	16.374206 
5700.000000	16.381835 
5698.000000	16.384124 
5696.000000	16.398620 
5694.000000	16.419219 
5692.000000	16.437530 
5690.000000	16.445159 
5688.000000	16.465759 
5686.000000	16.493988 
5684.000000	16.501617 
5682.000000	16.510009 
5680.000000	16.528320 
5678.000000	16.548156 
5676.000000	16.559600 
5674.000000	16.566467 
5672.000000	16.587829 
5670.000000	16.620635 
5668.000000	16.643524 
5666.000000	16.645812 
5664.000000	16.635131 
5662.000000	16.646575 
5660.000000	16.680145 
5658.000000	16.715240 
5656.000000	16.735076 
5654.000000	16.738128 
5652.000000	16.747283 
5650.000000	16.767883 
5648.000000	16.799926 
5646.000000	16.825103 
5644.000000	16.830444 
5642.000000	16.835784 
5640.000000	16.852569 
5638.000000	16.868591 
5636.000000	16.886138 
5634.000000	16.905975 
5632.000000	16.916656 
5630.000000	16.934204 
5628.000000	16.962432 
5626.000000	16.984558 
5624.000000	16.986846 
5622.000000	16.995239 
5620.000000	17.018890 
5618.000000	17.040252 
5616.000000	17.042541 
5614.000000	17.044830 
5612.000000	17.072296 
5610.000000	17.113494 
5608.000000	17.136383 
5606.000000	17.134857 
5604.000000	17.119598 
5602.000000	17.121887 
5600.000000	17.152404 
5598.000000	17.177581 
5596.000000	17.198181 
5594.000000	17.227935 
5592.000000	17.250823 
5590.000000	17.269897 
5588.000000	17.290496 
5586.000000	17.304229 
5584.000000	17.311096 
5582.000000	17.317962 
5580.000000	17.325592 
5578.000000	17.332458 
5576.000000	17.342376 
5574.000000	17.362213 
5572.000000	17.379760 
5570.000000	17.389678 
5568.000000	17.392730 
5566.000000	17.398834 
5564.000000	17.436981 
5562.000000	17.476654 
5560.000000	17.510986 
5558.000000	17.498779 
5556.000000	17.424774 
5554.000000	17.344665 
5552.000000	17.333984 
5550.000000	17.356109 
5548.000000	17.388916 
5546.000000	17.469024 
5544.000000	17.560577 
5542.000000	17.615509 
5540.000000	17.559051 
5538.000000	17.413330 
5536.000000	17.366027 
5534.000000	17.449951 
5532.000000	17.561340 
5530.000000	17.630767 
5528.000000	17.687988 
5526.000000	17.694091 
5524.000000	17.548370 
5522.000000	17.447662 
5520.000000	17.462921 
5518.000000	17.424011 
5516.000000	17.475128 
5514.000000	17.665863 
5512.000000	17.739105 
5510.000000	17.478179 
5508.000000	17.214202 
5506.000000	17.282104 
5504.000000	17.494201 
5502.000000	17.674255 
5500.000000	17.698669 
5498.000000	17.720794 
5496.000000	17.401885 
5494.000000	16.757965 
5492.000000	16.545867 
5490.000000	16.652679 
5488.000000	16.942596 
5486.000000	17.440795 
5484.000000	17.874145 
5482.000000	18.112945 
5480.000000	18.092346 
5478.000000	17.372131 
5476.000000	16.604614 
5474.000000	16.847229 
5472.000000	17.332458 
5470.000000	17.372131 
5468.000000	17.324829 
5466.000000	17.318725 
5464.000000	17.127990 
5462.000000	16.847991 
5460.000000	16.997528 
5458.000000	17.297363 
5456.000000	17.609405 
5454.000000	17.928314 
5452.000000	17.761993 
5450.000000	17.263031 
5448.000000	16.716003 
5446.000000	16.332244 
5444.000000	16.233062 
5442.000000	16.191864 
5440.000000	16.768646 
5438.000000	17.123413 
5436.000000	16.787719 
5434.000000	16.847991 
5432.000000	16.772460 
5430.000000	16.212463 
5428.000000	16.416931 
5426.000000	17.280578 
5424.000000	17.989349 
5422.000000	18.441772 
5420.000000	18.659210 
5418.000000	18.405914 
5416.000000	17.322540 
5414.000000	16.226196 
5412.000000	15.766906 
5410.000000	16.147613 
5408.000000	17.163085 
5406.000000	17.863464 
5404.000000	18.227386 
5402.000000	18.553161 
5400.000000	18.610382 
5398.000000	18.112945 
5396.000000	17.295074 
5394.000000	16.951751 
5392.000000	17.616271 
5390.000000	18.235778 
5388.000000	17.952728 
5386.000000	17.521667 
5384.000000	17.855834 
5382.000000	18.437194 
5380.000000	18.290710 
5378.000000	17.418670 
5376.000000	17.053222 
5374.000000	17.601776 
5372.000000	18.415832 
5370.000000	18.937683 
5368.000000	19.059753 
5366.000000	18.769836 
5364.000000	18.528747 
5362.000000	18.728637 
5360.000000	19.070434 
5358.000000	19.018554 
5356.000000	17.983245 
5354.000000	16.991424 
5352.000000	17.175292 
5350.000000	17.568206 
5348.000000	17.391204 
5346.000000	16.494750 
5344.000000	16.424560 
5342.000000	16.985321 
5340.000000	16.561126 
5338.000000	16.379547 
5336.000000	17.176818 
5334.000000	17.891693 
5332.000000	18.296051 
5330.000000	18.224334 
5328.000000	17.907714 
5326.000000	18.321228 
5324.000000	19.049835 
5322.000000	19.532012 
5320.000000	19.699859 
5318.000000	19.609069 
5316.000000	19.567108 
5314.000000	19.715881 
5312.000000	19.821166 
5310.000000	19.412231 
5308.000000	18.935394 
5306.000000	19.116210 
5304.000000	19.484710 
5302.000000	19.627380 
5300.000000	19.705200 
5298.000000	19.944000 
5296.000000	20.137023 
5294.000000	19.992828 
5292.000000	19.293212 
5290.000000	19.015502 
5288.000000	19.303131 
5286.000000	19.382476 
5284.000000	19.500732 
5282.000000	19.617462 
5280.000000	19.786071 
5278.000000	20.118713 
5276.000000	20.369720 
5274.000000	20.477294 
5272.000000	20.284271 
5270.000000	19.906616 
5268.000000	19.523620 
5266.000000	18.757629 
5264.000000	18.140411 
5262.000000	18.451690 
5260.000000	19.347381 
5258.000000	19.667053 
5256.000000	19.216156 
5254.000000	19.300842 
5252.000000	19.590759 
5250.000000	18.991851 
5248.000000	18.402099 
5246.000000	18.259429 
5244.000000	18.725585 
5242.000000	19.697570 
5240.000000	20.316314 
5238.000000	20.609283 
5236.000000	20.603942 
5234.000000	20.286560 
5232.000000	19.989013 
5230.000000	20.029449 
5228.000000	19.670104 
5226.000000	19.110107 
5224.000000	19.438934 
5222.000000	20.075225 
5220.000000	20.291137 
5218.000000	20.433044 
5216.000000	20.806884 
5214.000000	21.141052 
5212.000000	20.995330 
5210.000000	20.028686 
5208.000000	18.829345 
5206.000000	18.776702 
5204.000000	19.853210 
5202.000000	20.832061 
5200.000000	21.013641 
5198.000000	20.689392 
5196.000000	20.793151 
5194.000000	21.189117 
5192.000000	21.322631 
5190.000000	21.210479 
5188.000000	21.018218 
5186.000000	20.732116 
5184.000000	20.877075 
5182.000000	21.183776 
5180.000000	21.349334 
5178.000000	21.488952 
5176.000000	21.636199 
5174.000000	21.702575 
5172.000000	21.603393 
5170.000000	21.640014 
5168.000000	21.804046 
5166.000000	21.710968 
5164.000000	21.576690 
5162.000000	21.669006 
5160.000000	21.736145 
5158.000000	21.648406 
5156.000000	21.648406 
5154.000000	21.829986 
5152.000000	21.996307 
5150.000000	22.159576 
5148.000000	22.311401 
5146.000000	22.359466 
5144.000000	22.259521 
5142.000000	22.196197 
5140.000000	22.318267 
5138.000000	22.451782 
5136.000000	22.489166 
5134.000000	22.489166 
5132.000000	22.545623 
5130.000000	22.634887 
5128.000000	22.716522 
5126.000000	22.788238 
5124.000000	22.831726 
5122.000000	22.801971 
5120.000000	22.741699 
5118.000000	22.758483 
5116.000000	22.814178 
5114.000000	22.868347 
5112.000000	22.942352 
5110.000000	23.007965 
5108.000000	23.044586 
5106.000000	23.081970 
5104.000000	23.139190 
5102.000000	23.188018 
5100.000000	23.207855 
5098.000000	23.220062 
5096.000000	23.245239 
5094.000000	23.281097 
5092.000000	23.346710 
5090.000000	23.419189 
5088.000000	23.468017 
5086.000000	23.518371 
5084.000000	23.566436 
5082.000000	23.603820 
5080.000000	23.646545 
5078.000000	23.687744 
5076.000000	23.710632 
5074.000000	23.711395 
5072.000000	23.739624 
5070.000000	23.799896 
5068.000000	23.848724 
5066.000000	23.888397 
5064.000000	23.928070 
5062.000000	23.959350 
5060.000000	24.005889 
5058.000000	24.057769 
5056.000000	24.105834 
5054.000000	24.143981 
5052.000000	24.159240 
5050.000000	24.170684 
5048.000000	24.207305 
5046.000000	24.263763 
5044.000000	24.308776 
5042.000000	24.346160 
5040.000000	24.386596 
5038.000000	24.430084 
5036.000000	24.468231 
5034.000000	24.494171 
5032.000000	24.524688 
5030.000000	24.564361 
5028.000000	24.602508 
5026.000000	24.629211 
5024.000000	24.666595 
5022.000000	24.721527 
5020.000000	24.755096 
5018.000000	24.785614 
5016.000000	24.831390 
5014.000000	24.874114 
5012.000000	24.900817 
5010.000000	24.938964 
5008.000000	24.988555 
5006.000000	25.018310 
5004.000000	25.054168 
5002.000000	25.096130 
5000.000000	25.126647 
4998.000000	25.159454 
4996.000000	25.193786 
4994.000000	25.220489 
4992.000000	25.252532 
4990.000000	25.294494 
4988.000000	25.343322 
4986.000000	25.391387 
4984.000000	25.433349 
4982.000000	25.472259 
4980.000000	25.514221 
4978.000000	25.563049 
4976.000000	25.605773 
4974.000000	25.637817 
4972.000000	25.671386 
4970.000000	25.712585 
4968.000000	25.760650 
4966.000000	25.790405 
4964.000000	25.824737 
4962.000000	25.870513 
4960.000000	25.906372 
4958.000000	25.938415 
4956.000000	25.981903 
4954.000000	26.029968 
4952.000000	26.074981 
4950.000000	26.116180 
4948.000000	26.155090 
4946.000000	26.197052 
4944.000000	26.239013 
4942.000000	26.279449 
4940.000000	26.320648 
4938.000000	26.356506 
4936.000000	26.396179 
4934.000000	26.434326 
4932.000000	26.469421 
4930.000000	26.508331 
4928.000000	26.550292 
4926.000000	26.586914 
4924.000000	26.624298 
4922.000000	26.663208 
4920.000000	26.711273 
4918.000000	26.754760 
4916.000000	26.781463 
4914.000000	26.812744 
4912.000000	26.851654 
4910.000000	26.889038 
4908.000000	26.922607 
4906.000000	26.959991 
4904.000000	26.996612 
4902.000000	27.034759 
4900.000000	27.072143 
4898.000000	27.116394 
4896.000000	27.163696 
4894.000000	27.209472 
4892.000000	27.257537 
4890.000000	27.304077 
4888.000000	27.342224 
4886.000000	27.377319 
4884.000000	27.420806 
4882.000000	27.470397 
4880.000000	27.515411 
4878.000000	27.557373 
4876.000000	27.593994 
4874.000000	27.626037 
4872.000000	27.660369 
4870.000000	27.704620 
4868.000000	27.750396 
4866.000000	27.799224 
4864.000000	27.853393 
4862.000000	27.889251 
4860.000000	27.924346 
4858.000000	27.969360 
4856.000000	28.022766 
4854.000000	28.070831 
4852.000000	28.119659 
4850.000000	28.170776 
4848.000000	28.213500 
4846.000000	28.253936 
4844.000000	28.285217 
4842.000000	28.320312 
4840.000000	28.375244 
4838.000000	28.427124 
4836.000000	28.463745 
4834.000000	28.498077 
4832.000000	28.537750 
4830.000000	28.580474 
4828.000000	28.624725 
4826.000000	28.666687 
4824.000000	28.707122 
4822.000000	28.751373 
4820.000000	28.800201 
4818.000000	28.847503 
4816.000000	28.888702 
4814.000000	28.929901 
4812.000000	28.971099 
4810.000000	29.013061 
4808.000000	29.058074 
4806.000000	29.096984 
4804.000000	29.133605 
4802.000000	29.182434 
4800.000000	29.232025 
4798.000000	29.275512 
4796.000000	29.320526 
4794.000000	29.362487 
4792.000000	29.402160 
4790.000000	29.454803 
4788.000000	29.502868 
4786.000000	29.547119 
4784.000000	29.592895 
4782.000000	29.636383 
4780.000000	29.676818 
4778.000000	29.712677 
4776.000000	29.759216 
4774.000000	29.808807 
4772.000000	29.846954 
4770.000000	29.887390 
4768.000000	29.929351 
4766.000000	29.970550 
4764.000000	30.014038 
4762.000000	30.065917 
4760.000000	30.113983 
4758.000000	30.152130 
4756.000000	30.195617 
4754.000000	30.242156 
4752.000000	30.285644 
4750.000000	30.329895 
4748.000000	30.376434 
4746.000000	30.424499 
4744.000000	30.467987 
4742.000000	30.506896 
4740.000000	30.551910 
4738.000000	30.596923 
4736.000000	30.643463 
4734.000000	30.682373 
4732.000000	30.726623 
4730.000000	30.772399 
4728.000000	30.810546 
4726.000000	30.839538 
4724.000000	30.872344 
4722.000000	30.918121 
4720.000000	30.973815 
4718.000000	31.024169 
4716.000000	31.069946 
4714.000000	31.112670 
4712.000000	31.150817 
4710.000000	31.190490 
4708.000000	31.227874 
4706.000000	31.273651 
4704.000000	31.313323 
4702.000000	31.350708 
4700.000000	31.404876 
4698.000000	31.459808 
4696.000000	31.498718 
4694.000000	31.533050 
4692.000000	31.574249 
4690.000000	31.614685 
4688.000000	31.645202 
4686.000000	31.681060 
4684.000000	31.722259 
4682.000000	31.768035 
4680.000000	31.804656 
4678.000000	31.842041 
4676.000000	31.887054 
4674.000000	31.932067 
4672.000000	31.974792 
4670.000000	32.018280 
4668.000000	32.061004 
4666.000000	32.108306 
4664.000000	32.147216 
4662.000000	32.181549 
4660.000000	32.224273 
4658.000000	32.263183 
4656.000000	32.296752 
4654.000000	32.331085 
4652.000000	32.366180 
4650.000000	32.400512 
4648.000000	32.442474 
4646.000000	32.487487 
4644.000000	32.527160 
4642.000000	32.556915 
4640.000000	32.587432 
4638.000000	32.634735 
4636.000000	32.677459 
4634.000000	32.708740 
4632.000000	32.744598 
4630.000000	32.781219 
4628.000000	32.815551 
4626.000000	32.852172 
4624.000000	32.886505 
4622.000000	32.920837 
4620.000000	32.959747 
4618.000000	32.994079 
4616.000000	33.023834 
4614.000000	33.049011 
4612.000000	33.080291 
4610.000000	33.127593 
4608.000000	33.159637 
4606.000000	33.180999 
4604.000000	33.226776 
4602.000000	33.271026 
4600.000000	33.289337 
4598.000000	33.315277 
4596.000000	33.349609 
4594.000000	33.385467 
4592.000000	33.421325 
4590.000000	33.450317 
4588.000000	33.490753 
4586.000000	33.536529 
4584.000000	33.557128 
4582.000000	33.568572 
4580.000000	33.598327 
4578.000000	33.631134 
4576.000000	33.665466 
4574.000000	33.714294 
4572.000000	33.757781 
4570.000000	33.792877 
4568.000000	33.821868 
4566.000000	33.850097 
4564.000000	33.889007 
4562.000000	33.932495 
4560.000000	33.972167 
4558.000000	34.004211 
4556.000000	34.036254 
4554.000000	34.079742 
4552.000000	34.123992 
4550.000000	34.166717 
4548.000000	34.204864 
4546.000000	34.249877 
4544.000000	34.300994 
4542.000000	34.344482 
4540.000000	34.390258 
4538.000000	34.444427 
4536.000000	34.490966 
4534.000000	34.535217 
4532.000000	34.596252 
4530.000000	34.651184 
4528.000000	34.694671 
4526.000000	34.742736 
4524.000000	34.797668 
4522.000000	34.860229 
4520.000000	34.922790 
4518.000000	34.973144 
4516.000000	35.026550 
4514.000000	35.085296 
4512.000000	35.145568 
4510.000000	35.205078 
4508.000000	35.266113 
4506.000000	35.318756 
4504.000000	35.370635 
4502.000000	35.435485 
4500.000000	35.506439 
4498.000000	35.570526 
4496.000000	35.636138 
4494.000000	35.706329 
4492.000000	35.772705 
4490.000000	35.825347 
4488.000000	35.876464 
4486.000000	35.943603 
4484.000000	36.023712 
4482.000000	36.096191 
4480.000000	36.156463 
4478.000000	36.222839 
4476.000000	36.286926 
4474.000000	36.345672 
4472.000000	36.409759 
4470.000000	36.473846 
4468.000000	36.537933 
4466.000000	36.605834 
4464.000000	36.674499 
4462.000000	36.743927 
4460.000000	36.803436 
4458.000000	36.859893 
4456.000000	36.929321 
4454.000000	36.999511 
4452.000000	37.055969 
4450.000000	37.108612 
4448.000000	37.168121 
4446.000000	37.238311 
4444.000000	37.305450 
4442.000000	37.364196 
4440.000000	37.429809 
4438.000000	37.504577 
4436.000000	37.576293 
4434.000000	37.631225 
4432.000000	37.683105 
4430.000000	37.750244 
4428.000000	37.815093 
4426.000000	37.870788 
4424.000000	37.933349 
4422.000000	37.998199 
4420.000000	38.064575 
4418.000000	38.121032 
4416.000000	38.182067 
4414.000000	38.249969 
4412.000000	38.311004 
4410.000000	38.368225 
4408.000000	38.432312 
4406.000000	38.487243 
4404.000000	38.543701 
4402.000000	38.601684 
4400.000000	38.664245 
4398.000000	38.717651 
4396.000000	38.766479 
4394.000000	38.829803 
4392.000000	38.895416 
4390.000000	38.952636 
4388.000000	39.009094 
4386.000000	39.069366 
4384.000000	39.121246 
4382.000000	39.173126 
4380.000000	39.233398 
4378.000000	39.283752 
4376.000000	39.329528 
4374.000000	39.386749 
4372.000000	39.447784 
4370.000000	39.514923 
4368.000000	39.579010 
4366.000000	39.632415 
4364.000000	39.685058 
4362.000000	39.734649 
4360.000000	39.781951 
4358.000000	39.846038 
4356.000000	39.924621 
4354.000000	39.987945 
4352.000000	40.036773 
4350.000000	40.091705 
4348.000000	40.148925 
4346.000000	40.203094 
4344.000000	40.264129 
4342.000000	40.335083 
4340.000000	40.401458 
4338.000000	40.453338 
4336.000000	40.506744 
4334.000000	40.566253 
4332.000000	40.619659 
4330.000000	40.669250 
4328.000000	40.727233 
4326.000000	40.787506 
4324.000000	40.844726 
4322.000000	40.905761 
4320.000000	40.969085 
4318.000000	41.018676 
4316.000000	41.070556 
4314.000000	41.134643 
4312.000000	41.196441 
4310.000000	41.246032 
4308.000000	41.301727 
4306.000000	41.354370 
4304.000000	41.413116 
4302.000000	41.474914 
4300.000000	41.535186 
4298.000000	41.583251 
4296.000000	41.635894 
