PE IR       SPECTRUM    SPECTRUM    ASCII       PEDS        1.60        
  -1
PE.ASC
80/01/12
22:38:29.00
80/01/12
22:38:29.00
Admin

400.000000
4









502,2.19
LITAO3
MIR
KBR
70765
0.300000
1
4.000000
STRONG
RATIO
SPECTRUM


DOUBLE
4
BI DIRECTIONAL
2

0


#HDR
-1
-1
#GR
CM-1
%T
0.00002384185791015625
0.0
6000.000000
-2.000000
2801
8
86.000823
0.003051
#DATA
6000.000000	76.194763 
5998.000000	76.210021 
5996.000000	76.164245 
5994.000000	76.175689 
5992.000000	76.118469 
5990.000000	75.931549 
5988.000000	75.892639 
5986.000000	76.002502 
5984.000000	76.055908 
5982.000000	76.112365 
5980.000000	76.068878 
5978.000000	75.987243 
5976.000000	76.159667 
5974.000000	76.280212 
5972.000000	76.129913 
5970.000000	76.033020 
5968.000000	76.069641 
5966.000000	76.105499 
5964.000000	76.117706 
5962.000000	76.032257 
5960.000000	76.009368 
5958.000000	76.119232 
5956.000000	76.142883 
5954.000000	76.051330 
5952.000000	75.949859 
5950.000000	75.939941 
5948.000000	76.033020 
5946.000000	76.094818 
5944.000000	76.129150 
5942.000000	76.063537 
5940.000000	76.011657 
5938.000000	75.985717 
5936.000000	75.988006 
5934.000000	76.049804 
5932.000000	76.008605 
5930.000000	75.948333 
5928.000000	75.957489 
5926.000000	75.867462 
5924.000000	75.830078 
5922.000000	75.891113 
5920.000000	75.875091 
5918.000000	75.846099 
5916.000000	75.796508 
5914.000000	75.727844 
5912.000000	75.714111 
5910.000000	75.773620 
5908.000000	75.907135 
5906.000000	75.915527 
5904.000000	75.859832 
5902.000000	75.867462 
5900.000000	75.823974 
5898.000000	75.860595 
5896.000000	75.767517 
5894.000000	75.666809 
5892.000000	75.696563 
5890.000000	75.690460 
5888.000000	75.716400 
5886.000000	75.793457 
5884.000000	75.784301 
5882.000000	75.654602 
5880.000000	75.491333 
5878.000000	75.358581 
5876.000000	75.325775 
5874.000000	75.323486 
5872.000000	75.321197 
5870.000000	75.309753 
5868.000000	75.316619 
5866.000000	75.289916 
5864.000000	75.228881 
5862.000000	75.152587 
5860.000000	75.024414 
5858.000000	74.903106 
5856.000000	74.795532 
5854.000000	74.695587 
5852.000000	74.578857 
5850.000000	74.470520 
5848.000000	74.399566 
5846.000000	74.334716 
5844.000000	74.304199 
5842.000000	74.181365 
5840.000000	74.166870 
5838.000000	74.179840 
5836.000000	74.057769 
5834.000000	74.016571 
5832.000000	73.899841 
5830.000000	73.752593 
5828.000000	73.760223 
5826.000000	73.674011 
5824.000000	73.454284 
5822.000000	73.294067 
5820.000000	73.300933 
5818.000000	73.297119 
5816.000000	73.173522 
5814.000000	73.100280 
5812.000000	73.014831 
5810.000000	72.808837 
5808.000000	72.663879 
5806.000000	72.530364 
5804.000000	72.259521 
5802.000000	72.134399 
5800.000000	72.112274 
5798.000000	71.988677 
5796.000000	71.781921 
5794.000000	71.557617 
5792.000000	71.437072 
5790.000000	71.208953 
5788.000000	70.896911 
5786.000000	70.666503 
5784.000000	70.356750 
5782.000000	69.953155 
5780.000000	69.499969 
5778.000000	69.275665 
5776.000000	69.186401 
5774.000000	69.113159 
5772.000000	69.245147 
5770.000000	69.659423 
5768.000000	70.154571 
5766.000000	70.622253 
5764.000000	71.090698 
5762.000000	71.495819 
5760.000000	71.862792 
5758.000000	72.211456 
5756.000000	72.590637 
5754.000000	72.946166 
5752.000000	73.193359 
5750.000000	73.373413 
5748.000000	73.541259 
5746.000000	73.631286 
5744.000000	73.702239 
5742.000000	73.855590 
5740.000000	74.038696 
5738.000000	74.105072 
5736.000000	74.113464 
5734.000000	74.034118 
5732.000000	73.997497 
5730.000000	74.083709 
5728.000000	74.182891 
5726.000000	74.338531 
5724.000000	74.574279 
5722.000000	74.713134 
5720.000000	74.751281 
5718.000000	74.789428 
5716.000000	74.832916 
5714.000000	74.794769 
5712.000000	74.763488 
5710.000000	74.769592 
5708.000000	74.792480 
5706.000000	74.729156 
5704.000000	74.604797 
5702.000000	74.580383 
5700.000000	74.623107 
5698.000000	74.604034 
5696.000000	74.501800 
5694.000000	74.485778 
5692.000000	74.458312 
5690.000000	74.377441 
5688.000000	74.340820 
5686.000000	74.263763 
5684.000000	74.156188 
5682.000000	74.049377 
5680.000000	73.959350 
5678.000000	73.913574 
5676.000000	73.829650 
5674.000000	73.671722 
5672.000000	73.452758 
5670.000000	73.225402 
5668.000000	73.086547 
5666.000000	73.049163 
5664.000000	73.103332 
5662.000000	73.185729 
5660.000000	73.218536 
5658.000000	73.319244 
5656.000000	73.590850 
5654.000000	73.936462 
5652.000000	74.134826 
5650.000000	74.247741 
5648.000000	74.359893 
5646.000000	74.443817 
5644.000000	74.581909 
5642.000000	74.725341 
5640.000000	74.815368 
5638.000000	74.902343 
5636.000000	74.973297 
5634.000000	74.978637 
5632.000000	75.053405 
5630.000000	75.130462 
5628.000000	75.102233 
5626.000000	75.133514 
5624.000000	75.239562 
5622.000000	75.274658 
5620.000000	75.248718 
5618.000000	75.212097 
5616.000000	75.234985 
5614.000000	75.382995 
5612.000000	75.440216 
5610.000000	75.389099 
5608.000000	75.363159 
5606.000000	75.323486 
5604.000000	75.309753 
5602.000000	75.333404 
5600.000000	75.366973 
5598.000000	75.384521 
5596.000000	75.374603 
5594.000000	75.420379 
5592.000000	75.489807 
5590.000000	75.516510 
5588.000000	75.528717 
5586.000000	75.566864 
5584.000000	75.590515 
5582.000000	75.570678 
5580.000000	75.530242 
5578.000000	75.488281 
5576.000000	75.460052 
5574.000000	75.434112 
5572.000000	75.472259 
5570.000000	75.536346 
5568.000000	75.518798 
5566.000000	75.450897 
5564.000000	75.405883 
5562.000000	75.408172 
5560.000000	75.389099 
5558.000000	75.379180 
5556.000000	75.379180 
5554.000000	75.357818 
5552.000000	75.395202 
5550.000000	75.366973 
5548.000000	75.321197 
5546.000000	75.338745 
5544.000000	75.363922 
5542.000000	75.370025 
5540.000000	75.334930 
5538.000000	75.254058 
5536.000000	75.286865 
5534.000000	75.388336 
5532.000000	75.440216 
5530.000000	75.482940 
5528.000000	75.475311 
5526.000000	75.419616 
5524.000000	75.379180 
5522.000000	75.381469 
5520.000000	75.508117 
5518.000000	75.495147 
5516.000000	75.437927 
5514.000000	75.524139 
5512.000000	75.564575 
5510.000000	75.518035 
5508.000000	75.543975 
5506.000000	75.643920 
5504.000000	75.672912 
5502.000000	75.606536 
5500.000000	75.553131 
5498.000000	75.528717 
5496.000000	75.348663 
5494.000000	75.175476 
5492.000000	75.207519 
5490.000000	75.318145 
5488.000000	75.469207 
5486.000000	75.657653 
5484.000000	75.672912 
5482.000000	75.564575 
5480.000000	75.512695 
5478.000000	75.302886 
5476.000000	75.160980 
5474.000000	75.509643 
5472.000000	75.748443 
5470.000000	75.584411 
5468.000000	75.431060 
5466.000000	75.480651 
5464.000000	75.531768 
5462.000000	75.501251 
5460.000000	75.601959 
5458.000000	75.707244 
5456.000000	75.795745 
5454.000000	75.901031 
5452.000000	75.796508 
5450.000000	75.563812 
5448.000000	75.495910 
5446.000000	75.593566 
5444.000000	75.715637 
5442.000000	75.791931 
5440.000000	75.984954 
5438.000000	76.052856 
5436.000000	75.833129 
5434.000000	75.770568 
5432.000000	75.738525 
5430.000000	75.589752 
5428.000000	75.786590 
5426.000000	76.159667 
5424.000000	76.200103 
5422.000000	76.036834 
5420.000000	76.007843 
5418.000000	75.914001 
5416.000000	75.540924 
5414.000000	75.311279 
5412.000000	75.547790 
5410.000000	75.933837 
5408.000000	76.184844 
5406.000000	76.186370 
5404.000000	76.132202 
5402.000000	76.187896 
5400.000000	76.151275 
5398.000000	75.962066 
5396.000000	75.801086 
5394.000000	75.909423 
5392.000000	76.296997 
5390.000000	76.494598 
5388.000000	76.269531 
5386.000000	76.074981 
5384.000000	76.338958 
5382.000000	76.547241 
5380.000000	76.354980 
5378.000000	76.004028 
5376.000000	76.014709 
5374.000000	76.393890 
5372.000000	76.577758 
5370.000000	76.531219 
5368.000000	76.374816 
5366.000000	76.176452 
5364.000000	76.146697 
5362.000000	76.342010 
5360.000000	76.482391 
5358.000000	76.361083 
5356.000000	75.989532 
5354.000000	75.811767 
5352.000000	76.128387 
5350.000000	76.340484 
5348.000000	76.194763 
5346.000000	75.922393 
5344.000000	76.135253 
5342.000000	76.486206 
5340.000000	76.200103 
5338.000000	76.012420 
5336.000000	76.437377 
5334.000000	76.616668 
5332.000000	76.470184 
5330.000000	76.396179 
5328.000000	76.404571 
5326.000000	76.592254 
5324.000000	76.770782 
5322.000000	76.712036 
5320.000000	76.650238 
5318.000000	76.599884 
5316.000000	76.571655 
5314.000000	76.647186 
5312.000000	76.659393 
5310.000000	76.493072 
5308.000000	76.355743 
5306.000000	76.499938 
5304.000000	76.620483 
5302.000000	76.523590 
5300.000000	76.433563 
5298.000000	76.481628 
5296.000000	76.570129 
5294.000000	76.493072 
5292.000000	76.271057 
5290.000000	76.272583 
5288.000000	76.459503 
5286.000000	76.479339 
5284.000000	76.474761 
5282.000000	76.483917 
5280.000000	76.391601 
5278.000000	76.399993 
5276.000000	76.494598 
5274.000000	76.565551 
5272.000000	76.508331 
5270.000000	76.454162 
5268.000000	76.432037 
5266.000000	76.329040 
5264.000000	76.294708 
5262.000000	76.556396 
5260.000000	76.866149 
5258.000000	76.806640 
5256.000000	76.535797 
5254.000000	76.599121 
5252.000000	76.775360 
5250.000000	76.556396 
5248.000000	76.338195 
5246.000000	76.482391 
5244.000000	76.716613 
5242.000000	76.886749 
5240.000000	76.843261 
5238.000000	76.697540 
5236.000000	76.575469 
5234.000000	76.448059 
5232.000000	76.348876 
5230.000000	76.414489 
5228.000000	76.395416 
5226.000000	76.296234 
5224.000000	76.476287 
5222.000000	76.623535 
5220.000000	76.531219 
5218.000000	76.516723 
5216.000000	76.611328 
5214.000000	76.622009 
5212.000000	76.491546 
5210.000000	76.261138 
5208.000000	76.107025 
5206.000000	76.392364 
5204.000000	76.841735 
5202.000000	76.932525 
5200.000000	76.734924 
5198.000000	76.586914 
5196.000000	76.700592 
5194.000000	76.838684 
5192.000000	76.815795 
5190.000000	76.778411 
5188.000000	76.778411 
5186.000000	76.740264 
5184.000000	76.776123 
5182.000000	76.800537 
5180.000000	76.760101 
5178.000000	76.727294 
5176.000000	76.776885 
5174.000000	76.783752 
5172.000000	76.706695 
5170.000000	76.699066 
5168.000000	76.758575 
5166.000000	76.685333 
5164.000000	76.517486 
5162.000000	76.501464 
5160.000000	76.535797 
5158.000000	76.457214 
5156.000000	76.489257 
5154.000000	76.644134 
5152.000000	76.725006 
5150.000000	76.715087 
5148.000000	76.744842 
5146.000000	76.779174 
5144.000000	76.725769 
5142.000000	76.702117 
5140.000000	76.792907 
5138.000000	76.880645 
5136.000000	76.912689 
5134.000000	76.949310 
5132.000000	76.931762 
5130.000000	76.927185 
5128.000000	76.934051 
5126.000000	76.943206 
5124.000000	76.987457 
5122.000000	76.962280 
5120.000000	76.882171 
5118.000000	76.847076 
5116.000000	76.914215 
5114.000000	76.946258 
5112.000000	76.882934 
5110.000000	76.837921 
5108.000000	76.830291 
5106.000000	76.802825 
5104.000000	76.757812 
5102.000000	76.754760 
5100.000000	76.753997 
5098.000000	76.723480 
5096.000000	76.708984 
5094.000000	76.769256 
5092.000000	76.777648 
5090.000000	76.721191 
5088.000000	76.760101 
5086.000000	76.816558 
5084.000000	76.799011 
5082.000000	76.774597 
5080.000000	76.834869 
5078.000000	76.940155 
5076.000000	76.958465 
5074.000000	76.983642 
5072.000000	77.035522 
5070.000000	77.078247 
5068.000000	77.123260 
5066.000000	77.139282 
5064.000000	77.169036 
5062.000000	77.207183 
5060.000000	77.183532 
5058.000000	77.149200 
5056.000000	77.131652 
5054.000000	77.061462 
5052.000000	76.987457 
5050.000000	77.009582 
5048.000000	77.033233 
5046.000000	76.974487 
5044.000000	76.949310 
5042.000000	76.934051 
5040.000000	76.882171 
5038.000000	76.837158 
5036.000000	76.831817 
5034.000000	76.821899 
5032.000000	76.787567 
5030.000000	76.814270 
5028.000000	76.876068 
5026.000000	76.887512 
5024.000000	76.884460 
5022.000000	76.903533 
5020.000000	76.946258 
5018.000000	76.980590 
5016.000000	76.991271 
5014.000000	76.986694 
5012.000000	77.088165 
5010.000000	77.193450 
5008.000000	77.165222 
5006.000000	77.172088 
5004.000000	77.181243 
5002.000000	77.134704 
5000.000000	77.136993 
4998.000000	77.160644 
4996.000000	77.142333 
4994.000000	77.143859 
4992.000000	77.142333 
4990.000000	77.082061 
4988.000000	76.987457 
4986.000000	76.905822 
4984.000000	76.899719 
4982.000000	76.920318 
4980.000000	76.911926 
4978.000000	76.853179 
4976.000000	76.771545 
4974.000000	76.791381 
4972.000000	76.851654 
4970.000000	76.795959 
4968.000000	76.721191 
4966.000000	76.741027 
4964.000000	76.739501 
4962.000000	76.750183 
4960.000000	76.835632 
4958.000000	76.921844 
4956.000000	76.980590 
4954.000000	77.017211 
4952.000000	77.063751 
4950.000000	77.132415 
4948.000000	77.173614 
4946.000000	77.196502 
4944.000000	77.249145 
4942.000000	77.310943 
4940.000000	77.346038 
4938.000000	77.349090 
4936.000000	77.321624 
4934.000000	77.307128 
4932.000000	77.298736 
4930.000000	77.257537 
4928.000000	77.224731 
4926.000000	77.195739 
4924.000000	77.153778 
4922.000000	77.140808 
4920.000000	77.069091 
4918.000000	77.017974 
4916.000000	77.011871 
4914.000000	76.991271 
4912.000000	76.969909 
4910.000000	76.956939 
4908.000000	76.953125 
4906.000000	76.971435 
4904.000000	76.972198 
4902.000000	76.954650 
4900.000000	76.990509 
4898.000000	77.043151 
4896.000000	77.050781 
4894.000000	77.069091 
4892.000000	77.103424 
4890.000000	77.121734 
4888.000000	77.182769 
4886.000000	77.230072 
4884.000000	77.233123 
4882.000000	77.279663 
4880.000000	77.323150 
4878.000000	77.309417 
4876.000000	77.310180 
4874.000000	77.322387 
4872.000000	77.322387 
4870.000000	77.307128 
4868.000000	77.281951 
4866.000000	77.257537 
4864.000000	77.241516 
4862.000000	77.281951 
4860.000000	77.258300 
4858.000000	77.194213 
4856.000000	77.156829 
4854.000000	77.149200 
4852.000000	77.099609 
4850.000000	77.025604 
4848.000000	77.032470 
4846.000000	77.066802 
4844.000000	77.104949 
4842.000000	77.121734 
4840.000000	77.097320 
4838.000000	77.074432 
4836.000000	77.089691 
4834.000000	77.146911 
4832.000000	77.217102 
4830.000000	77.292633 
4828.000000	77.359008 
4826.000000	77.387237 
4824.000000	77.404785 
4822.000000	77.452850 
4820.000000	77.519989 
4818.000000	77.546691 
4816.000000	77.584075 
4814.000000	77.656555 
4812.000000	77.695465 
4810.000000	77.674865 
4808.000000	77.633666 
4806.000000	77.627563 
4804.000000	77.611541 
4802.000000	77.568054 
4800.000000	77.529144 
4798.000000	77.517700 
4796.000000	77.484893 
4794.000000	77.437591 
4792.000000	77.387237 
4790.000000	77.357482 
4788.000000	77.361297 
4786.000000	77.323150 
4784.000000	77.267456 
4782.000000	77.263641 
4780.000000	77.297973 
4778.000000	77.334594 
4776.000000	77.331542 
4774.000000	77.358245 
4772.000000	77.426910 
4770.000000	77.454376 
4768.000000	77.514648 
4766.000000	77.584075 
4764.000000	77.628326 
4762.000000	77.680206 
4760.000000	77.730560 
4758.000000	77.788543 
4756.000000	77.811431 
4754.000000	77.821350 
4752.000000	77.827453 
4750.000000	77.850341 
4748.000000	77.874755 
4746.000000	77.867126 
4744.000000	77.841949 
4742.000000	77.818298 
4740.000000	77.797698 
4738.000000	77.769470 
4736.000000	77.705383 
4734.000000	77.648925 
4732.000000	77.601623 
4730.000000	77.558898 
4728.000000	77.523803 
4726.000000	77.499389 
4724.000000	77.516174 
4722.000000	77.484130 
4720.000000	77.400207 
4718.000000	77.365112 
4716.000000	77.371215 
4714.000000	77.411651 
4712.000000	77.493286 
4710.000000	77.577209 
4708.000000	77.632904 
4706.000000	77.628326 
4704.000000	77.705383 
4702.000000	77.819824 
4700.000000	77.817535 
4698.000000	77.816772 
4696.000000	77.860260 
4694.000000	77.912902 
4692.000000	77.961730 
4690.000000	78.005218 
4688.000000	78.009796 
4686.000000	78.008270 
4684.000000	78.020477 
4682.000000	78.007507 
4680.000000	77.986907 
4678.000000	77.947998 
4676.000000	77.902984 
4674.000000	77.889251 
4672.000000	77.810668 
4670.000000	77.680969 
4668.000000	77.628326 
4666.000000	77.588653 
4664.000000	77.554321 
4662.000000	77.543640 
4660.000000	77.489471 
4658.000000	77.448272 
4656.000000	77.443695 
4654.000000	77.484893 
4652.000000	77.541351 
4650.000000	77.563476 
4648.000000	77.558898 
4646.000000	77.563476 
4644.000000	77.633666 
4642.000000	77.738952 
4640.000000	77.840423 
4638.000000	77.854156 
4636.000000	77.889251 
4634.000000	77.962493 
4632.000000	78.025054 
4630.000000	78.067016 
4628.000000	78.087615 
4626.000000	78.070831 
4624.000000	78.067016 
4622.000000	78.084564 
4620.000000	78.085327 
4618.000000	78.060150 
4616.000000	78.025817 
4614.000000	77.995300 
4612.000000	77.953338 
4610.000000	77.890014 
4608.000000	77.841186 
4606.000000	77.801513 
4604.000000	77.732849 
4602.000000	77.659606 
4600.000000	77.632904 
4598.000000	77.583312 
4596.000000	77.548980 
4594.000000	77.557373 
4592.000000	77.549743 
4590.000000	77.571105 
4588.000000	77.571868 
4586.000000	77.556610 
4584.000000	77.602386 
4582.000000	77.693176 
4580.000000	77.751159 
4578.000000	77.803039 
4576.000000	77.886199 
4574.000000	77.959442 
4572.000000	77.995300 
4570.000000	78.047943 
4568.000000	78.098297 
4566.000000	78.136444 
4564.000000	78.156280 
4562.000000	78.145599 
4560.000000	78.132629 
4558.000000	78.138732 
4556.000000	78.126525 
4554.000000	78.091430 
4552.000000	78.047180 
4550.000000	77.975463 
4548.000000	77.915954 
4546.000000	77.836608 
4544.000000	77.748107 
4542.000000	77.687835 
4540.000000	77.604675 
4538.000000	77.524566 
4536.000000	77.503204 
4534.000000	77.473449 
4532.000000	77.433013 
4530.000000	77.401733 
4528.000000	77.406311 
4526.000000	77.438354 
4524.000000	77.466583 
4522.000000	77.470397 
4520.000000	77.484893 
4518.000000	77.567291 
4516.000000	77.650451 
4514.000000	77.696990 
4512.000000	77.745819 
4510.000000	77.793884 
4508.000000	77.826690 
4506.000000	77.886199 
4504.000000	77.952575 
4502.000000	77.968597 
4500.000000	77.951049 
4498.000000	77.952575 
4496.000000	77.936553 
4494.000000	77.872467 
4492.000000	77.791595 
4490.000000	77.753448 
4488.000000	77.692413 
4486.000000	77.604675 
4484.000000	77.504730 
4482.000000	77.410125 
4480.000000	77.318572 
4478.000000	77.223205 
4476.000000	77.150726 
4474.000000	77.097320 
4472.000000	77.038574 
4470.000000	76.997375 
4468.000000	76.943969 
4466.000000	76.908111 
4464.000000	76.885223 
4462.000000	76.866149 
4460.000000	76.903533 
4458.000000	76.962280 
4456.000000	76.965332 
4454.000000	76.969909 
4452.000000	77.017974 
4450.000000	77.090454 
4448.000000	77.140045 
4446.000000	77.140808 
4444.000000	77.140808 
4442.000000	77.142333 
4440.000000	77.108764 
4438.000000	77.066802 
4436.000000	77.011871 
4434.000000	76.961517 
4432.000000	76.914978 
4430.000000	76.807403 
4428.000000	76.679992 
4426.000000	76.536560 
4424.000000	76.373291 
4422.000000	76.198577 
4420.000000	76.026153 
4418.000000	75.867462 
4416.000000	75.679779 
4414.000000	75.461578 
4412.000000	75.238800 
4410.000000	75.032806 
4408.000000	74.848175 
4406.000000	74.678802 
4404.000000	74.503326 
4402.000000	74.331665 
4400.000000	74.150848 
4398.000000	73.979187 
4396.000000	73.849487 
4394.000000	73.704528 
4392.000000	73.537445 
4390.000000	73.394012 
4388.000000	73.252868 
4386.000000	73.091888 
4384.000000	72.927856 
4382.000000	72.743225 
4380.000000	72.537994 
4378.000000	72.328948 
4376.000000	72.093963 
4374.000000	71.823883 
4372.000000	71.546936 
4370.000000	71.249389 
4368.000000	70.933532 
4366.000000	70.621490 
4364.000000	70.258331 
4362.000000	69.858551 
4360.000000	69.423675 
4358.000000	68.906402 
4356.000000	68.285369 
4354.000000	67.578125 
4352.000000	66.777038 
4350.000000	65.868377 
4348.000000	64.839172 
4346.000000	63.696289 
4344.000000	62.471008 
4342.000000	61.295318 
4340.000000	60.253906 
4338.000000	59.353637 
4336.000000	58.457946 
4334.000000	57.447052 
4332.000000	56.182098 
4330.000000	54.474639 
4328.000000	52.130889 
4326.000000	49.133300 
4324.000000	46.237182 
4322.000000	45.020294 
4320.000000	46.661376 
4318.000000	50.666809 
4316.000000	55.372619 
4314.000000	59.484863 
4312.000000	62.637329 
4310.000000	64.937591 
4308.000000	66.529846 
4306.000000	67.624664 
4304.000000	68.367004 
4302.000000	68.820953 
4300.000000	69.094848 
4298.000000	69.235229 
4296.000000	69.239807 
